File: Datasets/benign_asm-binary/2392-tga.asm.txt
11111101000000010000000100010011
00000010000100010010011000100011
00000010100000010010010000100011
00000011000000010000010000010011
11111100101001000010111000100011
11111100101101000010110000100011
11111100110001000010101000100011
11111100110101000010100000100011
11111110000001000010010000100011
11111101000001000010011110000011
00000010000001111001001001100011
00010000000000010000011110110111
00001001100001111000011010010011
00000011000000000000011000010011
00010000000000010000011110110111
00000000000001111000010110010011
00010000000000010000011110110111
00001000010001111000010100010011
00000000000000000000000000010011
00010000000000010000011110110111
00001000110001111000010110010011
11111101110001000010010100000011
00000000000000000000000000010011
11111110101001000010010000100011
11111110100001000010011110000011
00000010000001111001001001100011
00000011100000000000011000010011
00010000000000010000011110110111
00001010010001111000010110010011
00010000000000010000011110110111
00001001000001111000010100010011
00000000000000000000000000010011
00000000000100000000011110010011
00011111000000000000000001101111
11111110100001000010010110000011
00000000000000000000010100010011
00000000000000000000000000010011
11111110100001000010010110000011
00000000000000000000010100010011
00000000000000000000000000010011
11111110100001000010010110000011
00000000001000000000010100010011
00000000000000000000000000010011
11111110100001000010010110000011
00000000000000000000010100010011
00000000000000000000000000010011
11111110100001000010010110000011
00000000000000000000010100010011
00000000000000000000000000010011
11111110100001000010010110000011
00000000000000000000010100010011
00000000000000000000000000010011
11111110100001000010010110000011
00000000000000000000010100010011
00000000000000000000000000010011
11111110100001000010010110000011
00000000000000000000010100010011
00000000000000000000000000010011
11111110100001000010010110000011
00000000000000000000010100010011
00000000000000000000000000010011
11111110100001000010010110000011
00000000000000000000010100010011
00000000000000000000000000010011
11111110100001000010010110000011
00000000000000000000010100010011
00000000000000000000000000010011
11111110100001000010010110000011
00000000000000000000010100010011
00000000000000000000000000010011
11111101100001000010011100000011
01000001111101110101011110010011
00000001100001111101011110010011
00000000111101110000011100110011
00001111111101110111011100010011
01000000111101110000011110110011
11111110100001000010010110000011
00000000111100000000010100110011
00000000000000000000000000010011
11111101100001000010011110000011
01000001111101111101011100010011
00001111111101110111011100010011
00000000111101110000011110110011
01000000100001111101011110010011
11111110100001000010010110000011
00000000111100000000010100110011
00000000000000000000000000010011
11111101010001000010011100000011
01000001111101110101011110010011
00000001100001111101011110010011
00000000111101110000011100110011
00001111111101110111011100010011
01000000111101110000011110110011
11111110100001000010010110000011
00000000111100000000010100110011
00000000000000000000000000010011
11111101010001000010011110000011
01000001111101111101011100010011
00001111111101110111011100010011
00000000111101110000011110110011
01000000100001111101011110010011
11111110100001000010010110000011
00000000111100000000010100110011
00000000000000000000000000010011
11111110100001000010010110000011
00000001100000000000010100010011
00000000000000000000000000010011
11111110100001000010010110000011
00000000000000000000010100010011
00000000000000000000000000010011
11111110000001000010011000100011
00000110000000000000000001101111
11111110110001000010011110000011
11111101000001000010011100000011
00000000111101110000011110110011
00000000000001111100011110000011
11111110111101000000001110100011
11111110110001000010011110000011
00000000001001111000011110010011
11111101000001000010011100000011
00000000111101110000011100110011
11111110110001000010011110000011
11111101000001000010011010000011
00000000111101101000011110110011
00000000000001110100011100000011
00000000111001111000000000100011
11111110110001000010011110000011
00000000001001111000011110010011
11111101000001000010011100000011
00000000111101110000011110110011
11111110011101000100011100000011
00000000111001111000000000100011
11111110110001000010011110000011
00000000001101111000011110010011
11111110111101000010011000100011
11111101100001000010011100000011
11111101010001000010011110000011
00000010111101110000011100110011
00000000111000000000011110110011
00000000000101111001011110010011
00000000111001111000011110110011
11111110110001000010011100000011
11111000111101110100010011100011
11111101100001000010011100000011
11111101010001000010011110000011
00000010111101110000011100110011
00000000111000000000011110110011
00000000000101111001011110010011
00000000111001111000011110110011
11111110100001000010011010000011
00000000000100000000011000010011
00000000111100000000010110110011
11111101000001000010010100000011
00000000000000000000000000010011
11111110100001000010010100000011
00000000000000000000000000010011
00000000000000000000011110010011
00000000111100000000010100110011
00000010110000010010000010000011
00000010100000010010010000000011
00000011000000010000000100010011
00000000000000001000000001100111